File: nickel_exp_data/0.00997M.csv
"Wavelength nm.","Abs."
500.00,0.165
502.50,0.160
505.00,0.160
507.50,0.163
510.00,0.171
512.50,0.182
515.00,0.196
517.50,0.213
520.00,0.234
522.50,0.258
525.00,0.284
527.50,0.313
530.00,0.344
532.50,0.376
535.00,0.410
537.50,0.445
540.00,0.481
542.50,0.519
545.00,0.558
547.50,0.599
550.00,0.639
552.50,0.680
555.00,0.720
557.50,0.759
560.00,0.798
562.50,0.835
565.00,0.873
567.50,0.911
570.00,0.948
572.50,0.984
575.00,1.019
577.50,1.050
580.00,1.081
582.50,1.110
585.00,1.137
587.50,1.163
590.00,1.186
592.50,1.206
595.00,1.223
597.50,1.237
600.00,1.246
602.50,1.253
605.00,1.258
607.50,1.261
610.00,1.263
612.50,1.264
615.00,1.263
617.50,1.261
620.00,1.257
622.50,1.251
625.00,1.245
627.50,1.238
630.00,1.230
632.50,1.221
635.00,1.210
637.50,1.197
640.00,1.182
642.50,1.165
645.00,1.147
647.50,1.129
650.00,1.111
652.50,1.093
655.00,1.076
657.50,1.060
660.00,1.044
662.50,1.028
665.00,1.013
667.50,0.998
670.00,0.983
672.50,0.968
675.00,0.953
677.50,0.937
680.00,0.919
682.50,0.900
685.00,0.879
687.50,0.855
690.00,0.828
692.50,0.798
695.00,0.767
697.50,0.734
700.00,0.701
702.50,0.667
705.00,0.634
707.50,0.598
710.00,0.563
712.50,0.527
715.00,0.492
717.50,0.458
720.00,0.427
722.50,0.397
725.00,0.370
727.50,0.344
730.00,0.320
732.50,0.297
735.00,0.276
737.50,0.256
740.00,0.238
742.50,0.221
745.00,0.207
747.50,0.194
750.00,0.183
752.50,0.172
755.00,0.163
757.50,0.155
760.00,0.148
762.50,0.143
765.00,0.139
767.50,0.136
770.00,0.134
772.50,0.133
775.00,0.134
777.50,0.135
780.00,0.138
782.50,0.142
785.00,0.147
787.50,0.153
790.00,0.160
792.50,0.168
795.00,0.177
797.50,0.187
800.00,0.198
802.50,0.211
805.00,0.225
807.50,0.240
810.00,0.256
812.50,0.272
815.00,0.289
817.50,0.308
820.00,0.327
822.50,0.347
825.00,0.368
827.50,0.390
830.00,0.413
832.50,0.438
835.00,0.462
837.50,0.486
840.00,0.510
842.50,0.536
845.00,0.562
847.50,0.590
850.00,0.618
852.50,0.647
855.00,0.675
857.50,0.704
860.00,0.732
862.50,0.760
865.00,0.788
867.50,0.816
870.00,0.844
872.50,0.872
875.00,0.899
877.50,0.926
880.00,0.951
882.50,0.974
885.00,0.997
887.50,1.019
890.00,1.039
892.50,1.060
895.00,1.079
897.50,1.097
900.00,1.112
902.50,1.125
905.00,1.137
907.50,1.148
910.00,1.156
912.50,1.163
915.00,1.169
917.50,1.172
920.00,1.174
922.50,1.174
925.00,1.172
927.50,1.169
930.00,1.164
932.50,1.158
935.00,1.150
937.50,1.141
940.00,1.130
942.50,1.118
945.00,1.106
947.50,1.092
950.00,1.078
952.50,1.063
955.00,1.047
957.50,1.030
960.00,1.012
962.50,0.994
965.00,0.976
967.50,0.958
970.00,0.941
972.50,0.923
975.00,0.905
977.50,0.887
980.00,0.870
982.50,0.853
985.00,0.836
987.50,0.820
990.00,0.805
992.50,0.790
995.00,0.776
997.50,0.764
1000.00,0.752
1002.50,0.741
1005.00,0.732
1007.50,0.724
1010.00,0.717
1012.50,0.710
1015.00,0.704
1017.50,0.696
1020.00,0.689
1022.50,0.681
1025.00,0.672
1027.50,0.664
1030.00,0.655
1032.50,0.646
1035.00,0.635
1037.50,0.624
1040.00,0.612
1042.50,0.598
1045.00,0.585
1047.50,0.573
1050.00,0.561
1052.50,0.550
1055.00,0.539
1057.50,0.529
1060.00,0.519
1062.50,0.510
1065.00,0.502
1067.50,0.494
1070.00,0.487
1072.50,0.481
1075.00,0.476
1077.50,0.471
1080.00,0.466
1082.50,0.462
1085.00,0.459
1087.50,0.457
1090.00,0.456
1092.50,0.455
1095.00,0.455
1097.50,0.456
1100.00,0.458