File: nickel_exp_data/0.00249M.csv
"Wavelength nm.","Abs."
500.00,0.033
502.50,0.032
505.00,0.032
507.50,0.032
510.00,0.033
512.50,0.034
515.00,0.036
517.50,0.038
520.00,0.040
522.50,0.043
525.00,0.047
527.50,0.050
530.00,0.054
532.50,0.057
535.00,0.061
537.50,0.065
540.00,0.070
542.50,0.074
545.00,0.079
547.50,0.083
550.00,0.089
552.50,0.094
555.00,0.099
557.50,0.104
560.00,0.110
562.50,0.116
565.00,0.123
567.50,0.130
570.00,0.137
572.50,0.145
575.00,0.153
577.50,0.162
580.00,0.171
582.50,0.180
585.00,0.189
587.50,0.199
590.00,0.209
592.50,0.218
595.00,0.227
597.50,0.235
600.00,0.242
602.50,0.248
605.00,0.253
607.50,0.258
610.00,0.263
612.50,0.267
615.00,0.271
617.50,0.275
620.00,0.277
622.50,0.280
625.00,0.282
627.50,0.284
630.00,0.285
632.50,0.286
635.00,0.286
637.50,0.285
640.00,0.284
642.50,0.282
645.00,0.280
647.50,0.278
650.00,0.275
652.50,0.273
655.00,0.271
657.50,0.269
660.00,0.267
662.50,0.265
665.00,0.264
667.50,0.262
670.00,0.261
672.50,0.260
675.00,0.258
677.50,0.256
680.00,0.253
682.50,0.250
685.00,0.246
687.50,0.241
690.00,0.235
692.50,0.228
695.00,0.220
697.50,0.211
700.00,0.203
702.50,0.193
705.00,0.184
707.50,0.174
710.00,0.164
712.50,0.154
715.00,0.144
717.50,0.135
720.00,0.126
722.50,0.117
725.00,0.109
727.50,0.102
730.00,0.095
732.50,0.088
735.00,0.082
737.50,0.076
740.00,0.070
742.50,0.065
745.00,0.061
747.50,0.057
750.00,0.053
752.50,0.050
755.00,0.047
757.50,0.044
760.00,0.042
762.50,0.039
765.00,0.037
767.50,0.035
770.00,0.034
772.50,0.033
775.00,0.032
777.50,0.031
780.00,0.030
782.50,0.030
785.00,0.029
787.50,0.029
790.00,0.029
792.50,0.030
795.00,0.030
797.50,0.031
800.00,0.031
802.50,0.032
805.00,0.033
807.50,0.034
810.00,0.035
812.50,0.037
815.00,0.038
817.50,0.040
820.00,0.041
822.50,0.043
825.00,0.045
827.50,0.047
830.00,0.049
832.50,0.051
835.00,0.054
837.50,0.056
840.00,0.058
842.50,0.061
845.00,0.063
847.50,0.066
850.00,0.069
852.50,0.071
855.00,0.074
857.50,0.077
860.00,0.080
862.50,0.083
865.00,0.086
867.50,0.089
870.00,0.092
872.50,0.095
875.00,0.098
877.50,0.100
880.00,0.103
882.50,0.106
885.00,0.108
887.50,0.111
890.00,0.113
892.50,0.116
895.00,0.119
897.50,0.121
900.00,0.123
902.50,0.125
905.00,0.127
907.50,0.129
910.00,0.131
912.50,0.132
915.00,0.134
917.50,0.135
920.00,0.136
922.50,0.137
925.00,0.138
927.50,0.139
930.00,0.139
932.50,0.140
935.00,0.141
937.50,0.141
940.00,0.141
942.50,0.141
945.00,0.141
947.50,0.141
950.00,0.141
952.50,0.141
955.00,0.141
957.50,0.140
960.00,0.140
962.50,0.140
965.00,0.139
967.50,0.139
970.00,0.138
972.50,0.138
975.00,0.137
977.50,0.137
980.00,0.137
982.50,0.137
985.00,0.136
987.50,0.136
990.00,0.136
992.50,0.136
995.00,0.136
997.50,0.136
1000.00,0.137
1002.50,0.138
1005.00,0.139
1007.50,0.140
1010.00,0.141
1012.50,0.143
1015.00,0.144
1017.50,0.145
1020.00,0.145
1022.50,0.146
1025.00,0.146
1027.50,0.146
1030.00,0.145
1032.50,0.144
1035.00,0.143
1037.50,0.141
1040.00,0.139
1042.50,0.137
1045.00,0.134
1047.50,0.131
1050.00,0.129
1052.50,0.126
1055.00,0.124
1057.50,0.122
1060.00,0.120
1062.50,0.118
1065.00,0.116
1067.50,0.114
1070.00,0.113
1072.50,0.112
1075.00,0.111
1077.50,0.110
1080.00,0.109
1082.50,0.108
1085.00,-0.004
1087.50,-0.024
1090.00,-0.024
1092.50,-0.029
1095.00,-0.030
1097.50,-0.032
1100.00,-0.033