File: nickel_exp_data/0.00499M.csv
"Wavelength nm.","Abs."
500.00,0.064
502.50,0.062
505.00,0.063
507.50,0.064
510.00,0.067
512.50,0.071
515.00,0.076
517.50,0.083
520.00,0.091
522.50,0.100
525.00,0.110
527.50,0.121
530.00,0.133
532.50,0.145
535.00,0.157
537.50,0.171
540.00,0.184
542.50,0.199
545.00,0.213
547.50,0.229
550.00,0.244
552.50,0.260
555.00,0.275
557.50,0.291
560.00,0.306
562.50,0.322
565.00,0.338
567.50,0.355
570.00,0.371
572.50,0.388
575.00,0.405
577.50,0.422
580.00,0.439
582.50,0.455
585.00,0.471
587.50,0.487
590.00,0.502
592.50,0.516
595.00,0.530
597.50,0.541
600.00,0.550
602.50,0.558
605.00,0.565
607.50,0.570
610.00,0.576
612.50,0.580
615.00,0.584
617.50,0.586
620.00,0.588
622.50,0.589
625.00,0.590
627.50,0.590
630.00,0.589
632.50,0.587
635.00,0.585
637.50,0.581
640.00,0.576
642.50,0.570
645.00,0.563
647.50,0.556
650.00,0.549
652.50,0.542
655.00,0.535
657.50,0.529
660.00,0.523
662.50,0.518
665.00,0.512
667.50,0.507
670.00,0.502
672.50,0.497
675.00,0.491
677.50,0.485
680.00,0.478
682.50,0.469
685.00,0.460
687.50,0.449
690.00,0.436
692.50,0.421
695.00,0.406
697.50,0.389
700.00,0.372
702.50,0.354
705.00,0.336
707.50,0.318
710.00,0.299
712.50,0.280
715.00,0.261
717.50,0.243
720.00,0.226
722.50,0.210
725.00,0.195
727.50,0.181
730.00,0.168
732.50,0.156
735.00,0.144
737.50,0.133
740.00,0.123
742.50,0.114
745.00,0.106
747.50,0.099
750.00,0.092
752.50,0.087
755.00,0.081
757.50,0.076
760.00,0.072
762.50,0.068
765.00,0.065
767.50,0.063
770.00,0.061
772.50,0.060
775.00,0.059
777.50,0.058
780.00,0.058
782.50,0.059
785.00,0.060
787.50,0.062
790.00,0.063
792.50,0.066
795.00,0.068
797.50,0.072
800.00,0.075
802.50,0.079
805.00,0.084
807.50,0.089
810.00,0.094
812.50,0.100
815.00,0.105
817.50,0.112
820.00,0.118
822.50,0.125
825.00,0.132
827.50,0.140
830.00,0.148
832.50,0.157
835.00,0.165
837.50,0.174
840.00,0.182
842.50,0.191
845.00,0.201
847.50,0.210
850.00,0.220
852.50,0.231
855.00,0.241
857.50,0.251
860.00,0.261
862.50,0.271
865.00,0.281
867.50,0.291
870.00,0.301
872.50,0.312
875.00,0.322
877.50,0.331
880.00,0.341
882.50,0.349
885.00,0.358
887.50,0.366
890.00,0.374
892.50,0.382
895.00,0.389
897.50,0.396
900.00,0.402
902.50,0.408
905.00,0.412
907.50,0.417
910.00,0.421
912.50,0.424
915.00,0.427
917.50,0.429
920.00,0.431
922.50,0.432
925.00,0.432
927.50,0.432
930.00,0.432
932.50,0.431
935.00,0.429
937.50,0.427
940.00,0.425
942.50,0.422
945.00,0.419
947.50,0.415
950.00,0.411
952.50,0.407
955.00,0.403
957.50,0.398
960.00,0.393
962.50,0.388
965.00,0.383
967.50,0.378
970.00,0.373
972.50,0.368
975.00,0.363
977.50,0.358
980.00,0.354
982.50,0.349
985.00,0.344
987.50,0.340
990.00,0.336
992.50,0.332
995.00,0.329
997.50,0.326
1000.00,0.323
1002.50,0.321
1005.00,0.320
1007.50,0.319
1010.00,0.319
1012.50,0.318
1015.00,0.317
1017.50,0.316
1020.00,0.315
1022.50,0.314
1025.00,0.312
1027.50,0.309
1030.00,0.307
1032.50,0.303
1035.00,0.299
1037.50,0.295
1040.00,0.290
1042.50,0.284
1045.00,0.278
1047.50,0.272
1050.00,0.266
1052.50,0.261
1055.00,0.256
1057.50,0.251
1060.00,0.246
1062.50,0.242
1065.00,0.238
1067.50,0.235
1070.00,0.232
1072.50,0.229
1075.00,0.226
1077.50,0.224
1080.00,0.222
1082.50,0.221
1085.00,0.219
1087.50,0.219
1090.00,0.218
1092.50,0.218
1095.00,0.219
1097.50,0.220
1100.00,0.221